magnetometer-calibrated.txt

All values are in micro-Tesla (uT).
http://developer.android.com/guide/topics/sensors/sensors_overview.html

elapsed-time-system elapsed-time-sensor x y z
0.068 0.048 9.32 -36.56 -45.92
0.069 0.058 9.62 -36.39 -46.23
0.072 0.068 8.27 -36.67 -48.78
0.098 0.078 9.08 -36.53 -47.19
0.098 0.088 8.77 -36.39 -46.24
0.119 0.098 7.95 -36.7 -47.51
0.119 0.108 7.36 -37.06 -46.88
0.135 0.118 8.200001 -37.0 -48.1
0.200 0.128 8.200001 -37.0 -48.1
0.200 0.138 8.200001 -36.600006 -47.300003
0.200 0.148 8.200001 -36.600006 -47.300003
0.200 0.158 8.299999 -36.399994 -47.6
0.200 0.168 8.299999 -36.399994 -47.6
0.200 0.178 8.5 -36.299988 -47.700005
0.200 0.188 8.5 -36.299988 -47.700005
0.241 0.198 8.4 -36.299988 -47.700005
0.241 0.208 8.4 -36.299988 -47.700005
0.241 0.218 8.4 -36.399994 -47.700005
0.241 0.228 8.4 -36.399994 -47.700005
0.250 0.238 8.200001 -36.5 -47.700005
0.285 0.248 8.200001 -36.5 -47.700005
0.285 0.258 8.1 -36.5 -47.6
0.285 0.268 8.1 -36.5 -47.6
0.288 0.278 7.8999996 -36.5 -47.6
0.297 0.288 7.8999996 -36.5 -47.6
0.307 0.298 7.799999 -36.5 -47.6
0.317 0.308 7.799999 -36.5 -47.6
0.327 0.318 7.700001 -36.600006 -47.6
0.337 0.328 7.700001 -36.600006 -47.6
0.347 0.338 7.799999 -36.5 -47.800003
0.357 0.348 7.799999 -36.5 -47.800003
0.367 0.358 7.799999 -36.5 -47.800003
0.377 0.368 7.799999 -36.5 -47.800003
0.387 0.378 7.799999 -36.5 -47.9
0.397 0.388 7.799999 -36.5 -47.9
0.408 0.398 7.799999 -36.399994 -47.9
0.417 0.408 7.799999 -36.399994 -47.9
0.427 0.418 7.799999 -36.399994 -47.800003
0.437 0.428 7.799999 -36.399994 -47.800003
0.447 0.438 7.799999 -36.299988 -47.800003
0.457 0.448 7.799999 -36.299988 -47.800003
0.470 0.458 7.700001 -36.299988 -47.800003
0.477 0.468 7.700001 -36.299988 -47.800003
0.487 0.478 7.700001 -36.299988 -47.9
0.497 0.488 7.700001 -36.299988 -47.9
0.507 0.498 7.700001 -36.299988 -47.9
0.519 0.508 7.700001 -36.299988 -47.9
0.527 0.518 7.700001 -36.299988 -47.9
0.537 0.528 7.700001 -36.299988 -47.9
0.547 0.538 7.700001 -36.299988 -47.9
0.557 0.548 7.700001 -36.299988 -47.9
0.578 0.558 7.700001 -36.299988 -47.9
0.578 0.568 7.700001 -36.299988 -47.9
0.607 0.578 7.6000004 -36.299988 -47.9
0.607 0.588 7.6000004 -36.299988 -47.9
0.609 0.598 7.6000004 -36.299988 -48.0
0.623 0.608 7.6000004 -36.299988 -48.0
0.627 0.618 7.6000004 -36.299988 -48.0
0.637 0.628 7.6000004 -36.299988 -48.0
0.647 0.638 7.6000004 -36.200012 -48.1
0.657 0.648 7.6000004 -36.200012 -48.1
0.667 0.658 7.6000004 -36.200012 -48.1
0.677 0.668 7.6000004 -36.200012 -48.1
0.687 0.678 7.5 -36.200012 -48.1
0.697 0.688 7.5 -36.200012 -48.1
0.707 0.698 7.5 -36.200012 -48.200005
0.717 0.708 7.5 -36.200012 -48.200005
0.727 0.718 7.5 -36.200012 -48.200005
0.737 0.728 7.5 -36.200012 -48.200005
0.747 0.738 7.5 -36.100006 -48.300003
0.757 0.748 7.5 -36.100006 -48.300003
0.767 0.758 7.4000015 -36.100006 -48.300003
0.777 0.768 7.4000015 -36.100006 -48.300003
0.787 0.778 7.4000015 -36.100006 -48.4
0.797 0.788 7.4000015 -36.100006 -48.4
0.807 0.798 7.4000015 -36.100006 -48.4
0.817 0.808 7.4000015 -36.100006 -48.4
0.827 0.818 7.299999 -36.100006 -48.5
0.837 0.828 7.299999 -36.100006 -48.5
0.847 0.838 7.4000015 -36.0 -48.5
0.857 0.848 7.4000015 -36.0 -48.5
0.867 0.858 7.299999 -36.0 -48.6
0.877 0.868 7.299999 -36.0 -48.6
0.887 0.878 7.299999 -35.899994 -48.6
0.897 0.888 7.299999 -35.899994 -48.6
0.907 0.898 7.299999 -35.899994 -48.700005
0.918 0.908 7.299999 -35.899994 -48.700005
0.928 0.918 7.4000015 -35.899994 -48.700005
0.939 0.928 7.4000015 -35.899994 -48.700005
0.949 0.938 7.4000015 -35.799988 -48.700005
0.959 0.948 7.4000015 -35.799988 -48.700005
0.969 0.958 7.4000015 -35.799988 -48.700005
0.979 0.968 7.4000015 -35.799988 -48.700005
0.989 0.978 7.299999 -35.799988 -48.700005
0.999 0.988 7.299999 -35.799988 -48.700005
1.009 0.998 7.299999 -35.799988 -48.800003
1.020 1.008 7.299999 -35.799988 -48.800003
1.029 1.018 7.299999 -35.799988 -48.800003
1.039 1.028 7.299999 -35.799988 -48.800003
1.048 1.038 7.200001 -35.799988 -48.9
1.058 1.048 7.200001 -35.799988 -48.9
1.069 1.058 7.200001 -35.799988 -48.9
1.079 1.068 7.200001 -35.799988 -48.9
1.089 1.078 7.200001 -35.700012 -48.9
1.099 1.088 7.200001 -35.700012 -48.9
1.109 1.098 7.200001 -35.700012 -49.0
1.118 1.108 7.200001 -35.700012 -49.0
1.129 1.118 7.200001 -35.700012 -49.0
1.139 1.128 7.200001 -35.700012 -49.0
1.149 1.138 7.200001 -35.600006 -49.1
1.158 1.148 7.200001 -35.600006 -49.1
1.168 1.158 7.200001 -35.600006 -49.200005
1.178 1.168 7.200001 -35.600006 -49.200005
1.188 1.178 7.200001 -35.5 -49.200005
1.199 1.188 7.200001 -35.5 -49.200005
1.208 1.198 7.200001 -35.399994 -49.1
1.218 1.208 7.200001 -35.399994 -49.1
1.227 1.218 7.200001 -35.399994 -49.200005
1.237 1.228 7.200001 -35.399994 -49.200005
1.248 1.238 7.200001 -35.399994 -49.200005
1.258 1.248 7.200001 -35.399994 -49.200005
1.268 1.258 7.0999985 -35.299988 -49.300003
1.277 1.268 7.0999985 -35.299988 -49.300003
1.289 1.278 7.0999985 -35.299988 -49.300003
1.299 1.288 7.0999985 -35.299988 -49.300003
1.309 1.298 7.200001 -35.200012 -49.200005
1.319 1.308 7.200001 -35.200012 -49.200005
1.329 1.318 7.0999985 -35.200012 -49.300003
1.339 1.328 7.0999985 -35.200012 -49.300003
1.349 1.338 7.0999985 -35.200012 -49.300003
1.359 1.348 7.0999985 -35.200012 -49.300003
1.369 1.358 7.0999985 -35.200012 -49.300003
1.378 1.368 7.0999985 -35.200012 -49.300003
1.389 1.378 7.0999985 -35.100006 -49.4
1.398 1.388 7.0999985 -35.100006 -49.4
1.409 1.398 7.0999985 -35.100006 -49.4
1.419 1.408 7.0999985 -35.100006 -49.4
1.429 1.418 7.0999985 -35.0 -49.300003
1.439 1.428 7.0999985 -35.0 -49.300003
1.450 1.438 7.0 -35.0 -49.300003
1.458 1.448 7.0 -35.0 -49.300003
1.468 1.458 7.0999985 -34.899994 -49.300003
1.478 1.468 7.0999985 -34.899994 -49.300003
1.488 1.478 7.0999985 -34.899994 -49.300003
1.498 1.488 7.0999985 -34.899994 -49.300003
1.508 1.498 7.0999985 -34.799988 -49.4
1.518 1.508 7.0999985 -34.799988 -49.4
1.528 1.518 7.0 -34.799988 -49.5
1.539 1.528 7.0 -34.799988 -49.5
1.551 1.538 7.0 -34.700012 -49.5
1.558 1.548 7.0 -34.700012 -49.5
1.569 1.558 7.0 -34.700012 -49.6
1.578 1.568 7.0 -34.700012 -49.6
1.589 1.578 7.0 -34.600006 -49.6
1.601 1.588 7.0 -34.600006 -49.6
1.609 1.598 7.0 -34.600006 -49.6
1.619 1.608 7.0 -34.600006 -49.6
1.629 1.618 7.0 -34.5 -49.6
1.639 1.628 7.0 -34.5 -49.6
1.649 1.638 7.0 -34.5 -49.6
1.658 1.648 7.0 -34.5 -49.6
1.671 1.658 7.0 -34.399994 -49.700005
1.678 1.668 7.0 -34.399994 -49.700005
1.689 1.678 7.0 -34.399994 -49.700005
1.699 1.688 7.0 -34.399994 -49.700005
1.709 1.698 7.0 -34.399994 -49.800003
1.718 1.708 7.0 -34.399994 -49.800003
1.728 1.718 7.0 -34.299988 -49.800003
1.739 1.728 7.0 -34.299988 -49.800003
1.749 1.738 6.9000015 -34.299988 -49.800003
1.759 1.748 6.9000015 -34.299988 -49.800003
1.769 1.758 6.9000015 -34.299988 -49.800003
1.779 1.768 6.9000015 -34.299988 -49.800003
1.789 1.778 6.9000015 -34.299988 -49.800003
1.799 1.788 6.9000015 -34.299988 -49.800003
1.811 1.798 6.9000015 -34.299988 -49.800003
1.819 1.808 6.9000015 -34.299988 -49.800003
1.828 1.818 6.9000015 -34.200012 -49.800003
1.838 1.828 6.9000015 -34.200012 -49.800003
1.848 1.838 6.9000015 -34.200012 -49.800003
1.858 1.848 6.9000015 -34.200012 -49.800003
1.868 1.858 6.9000015 -34.200012 -49.800003
1.879 1.868 6.9000015 -34.200012 -49.800003
1.889 1.878 6.9000015 -34.200012 -49.800003
1.899 1.888 6.9000015 -34.200012 -49.800003
1.909 1.898 6.799999 -34.200012 -49.9
1.919 1.908 6.799999 -34.200012 -49.9
1.929 1.918 6.799999 -34.100006 -49.9
1.939 1.928 6.799999 -34.100006 -49.9
1.949 1.938 6.799999 -34.100006 -49.9
1.959 1.948 6.799999 -34.100006 -49.9
1.969 1.958 6.799999 -34.100006 -49.9
1.979 1.968 6.799999 -34.100006 -49.9
1.989 1.978 6.799999 -34.0 -49.9
1.998 1.988 6.799999 -34.0 -49.9
2.009 1.998 6.799999 -34.0 -49.9
2.019 2.008 6.799999 -34.0 -49.9
2.029 2.018 6.799999 -34.0 -50.0
2.039 2.028 6.799999 -34.0 -50.0
2.049 2.038 6.799999 -34.0 -50.0
2.059 2.048 6.799999 -34.0 -50.0
2.069 2.058 6.799999 -33.899994 -50.1
2.079 2.068 6.799999 -33.899994 -50.1
2.089 2.078 6.799999 -33.899994 -50.200005
2.100 2.088 6.799999 -33.899994 -50.200005
2.109 2.098 6.799999 -33.899994 -50.1
2.119 2.108 6.799999 -33.899994 -50.1
2.129 2.118 6.799999 -33.799988 -50.1
2.139 2.128 6.799999 -33.799988 -50.1
2.149 2.138 6.799999 -33.799988 -50.200005
2.159 2.148 6.799999 -33.799988 -50.200005
2.169 2.158 6.700001 -33.799988 -50.1
2.179 2.168 6.700001 -33.799988 -50.1
2.189 2.178 6.700001 -33.799988 -50.200005
2.199 2.188 6.700001 -33.799988 -50.200005
2.209 2.198 6.700001 -33.799988 -50.200005
2.219 2.208 6.700001 -33.799988 -50.200005
2.229 2.218 6.700001 -33.700012 -50.200005
2.239 2.228 6.700001 -33.700012 -50.200005
2.249 2.238 6.700001 -33.700012 -50.200005
2.259 2.248 6.700001 -33.700012 -50.200005
2.269 2.258 6.700001 -33.700012 -50.200005
2.279 2.268 6.700001 -33.700012 -50.200005
2.289 2.278 6.700001 -33.600006 -50.200005
2.299 2.288 6.700001 -33.600006 -50.200005
2.309 2.298 6.700001 -33.5 -50.200005
2.319 2.308 6.700001 -33.5 -50.200005
2.329 2.318 6.700001 -33.5 -50.200005
2.339 2.328 6.700001 -33.5 -50.200005
2.349 2.338 6.700001 -33.5 -50.200005
2.359 2.348 6.700001 -33.5 -50.200005
2.369 2.358 6.700001 -33.399994 -50.300003
2.379 2.368 6.700001 -33.399994 -50.300003
2.389 2.378 6.700001 -33.399994 -50.4
2.399 2.388 6.700001 -33.399994 -50.4
2.409 2.398 6.799999 -33.399994 -50.4
2.418 2.408 6.799999 -33.399994 -50.4
2.428 2.418 6.799999 -33.299988 -50.5
2.438 2.428 6.799999 -33.299988 -50.5
2.448 2.438 6.799999 -33.299988 -50.5
2.459 2.448 6.799999 -33.299988 -50.5
2.469 2.458 6.799999 -33.299988 -50.5
2.481 2.468 6.799999 -33.299988 -50.5
2.489 2.478 6.799999 -33.299988 -50.6
2.498 2.488 6.799999 -33.299988 -50.6
2.508 2.498 6.799999 -33.200012 -50.5
2.519 2.508 6.799999 -33.200012 -50.5
2.529 2.518 6.799999 -33.200012 -50.5
2.539 2.528 6.799999 -33.200012 -50.5
2.549 2.538 6.799999 -33.200012 -50.6
2.559 2.548 6.799999 -33.200012 -50.6
2.570 2.558 6.799999 -33.200012 -50.6
2.578 2.568 6.799999 -33.200012 -50.6
2.588 2.578 6.799999 -33.100006 -50.6
2.598 2.588 6.799999 -33.100006 -50.6
2.609 2.598 6.9000015 -33.100006 -50.6
2.619 2.608 6.9000015 -33.100006 -50.6
2.631 2.618 6.9000015 -33.0 -50.6
2.639 2.628 6.9000015 -33.0 -50.6
2.649 2.638 6.9000015 -33.0 -50.700005
2.658 2.648 6.9000015 -33.0 -50.700005
2.669 2.658 6.9000015 -33.0 -50.700005
2.678 2.668 6.9000015 -33.0 -50.700005
2.689 2.678 6.9000015 -33.0 -50.700005
2.699 2.688 6.9000015 -33.0 -50.700005
2.709 2.698 6.9000015 -33.0 -50.700005
2.719 2.708 6.9000015 -33.0 -50.700005
2.729 2.718 6.9000015 -33.0 -50.700005
2.739 2.728 6.9000015 -33.0 -50.700005
2.749 2.738 6.9000015 -33.0 -50.700005
2.760 2.748 6.9000015 -33.0 -50.700005
2.769 2.758 7.0 -32.899994 -50.800003
2.779 2.768 7.0 -32.899994 -50.800003
2.789 2.778 7.0 -33.0 -50.800003
2.799 2.788 7.0 -33.0 -50.800003
2.810 2.798 7.0 -32.899994 -50.800003
2.819 2.808 7.0 -32.899994 -50.800003
2.828 2.818 6.9000015 -32.899994 -50.9
2.838 2.828 6.9000015 -32.899994 -50.9
2.848 2.838 7.0 -32.899994 -50.9
2.858 2.848 7.0 -32.899994 -50.9
2.868 2.858 7.0 -33.0 -50.9
2.879 2.868 7.0 -33.0 -50.9
2.889 2.878 7.0 -32.899994 -51.0
2.899 2.888 7.0 -32.899994 -51.0
2.909 2.898 7.0 -33.0 -51.0
2.919 2.908 7.0 -33.0 -51.0
2.929 2.918 7.0 -33.0 -51.0
2.939 2.928 7.0 -33.0 -51.0
2.949 2.938 7.0 -33.0 -51.0
2.959 2.948 7.0 -33.0 -51.0
2.969 2.958 7.0 -33.0 -50.9
2.979 2.968 7.0 -33.0 -50.9
2.989 2.978 7.0 -33.0 -50.9
2.999 2.988 7.0 -33.0 -50.9
3.009 2.998 7.0 -33.0 -50.9
3.019 3.008 7.0 -33.0 -50.9
3.029 3.018 7.0 -33.0 -50.9
3.039 3.028 7.0 -33.0 -50.9
3.049 3.038 7.0 -33.0 -50.9
3.059 3.048 7.0 -33.0 -50.9
3.069 3.058 7.0 -33.0 -50.9
3.079 3.068 7.0 -33.0 -50.9
3.089 3.078 7.0 -33.0 -50.9
3.099 3.088 7.0 -33.0 -50.9
3.109 3.098 7.0 -33.0 -51.0
3.119 3.108 7.0 -33.0 -51.0
3.129 3.118 7.0 -33.0 -51.0
3.138 3.128 7.0 -33.0 -51.0
3.149 3.138 7.0 -32.899994 -50.9
3.159 3.148 7.0 -32.899994 -50.9
3.169 3.158 7.0 -32.899994 -51.0
3.179 3.168 7.0 -32.899994 -51.0
3.189 3.178 7.0 -32.899994 -51.0
3.199 3.188 7.0 -32.899994 -51.0
3.213 3.198 7.0 -32.899994 -51.0
3.219 3.208 7.0 -32.899994 -51.0
3.229 3.218 7.0 -32.899994 -51.0
3.239 3.228 7.0 -32.899994 -51.0
3.249 3.238 7.0 -32.899994 -50.9
3.259 3.248 7.0 -32.899994 -50.9
3.269 3.258 7.0 -32.899994 -50.9
3.279 3.268 7.0 -32.899994 -50.9
3.289 3.278 7.0 -32.899994 -50.9
3.299 3.288 7.0 -32.899994 -50.9
3.309 3.298 7.0 -32.899994 -50.9
3.319 3.308 7.0 -32.899994 -50.9
3.329 3.318 7.0 -32.899994 -50.9
3.339 3.328 7.0 -32.899994 -50.9
3.350 3.338 7.0 -32.899994 -50.9
3.359 3.348 7.0 -32.899994 -50.9
3.369 3.358 7.0 -32.899994 -50.9
3.378 3.368 7.0 -32.899994 -50.9
3.389 3.378 7.0 -32.899994 -50.9
3.399 3.388 7.0 -32.899994 -50.9
3.408 3.398 7.0 -32.899994 -50.9
3.419 3.408 7.0 -32.899994 -50.9
3.429 3.418 7.0 -32.899994 -50.9
3.439 3.428 7.0 -32.899994 -50.9
3.449 3.438 7.0 -32.799988 -50.9
3.458 3.448 7.0 -32.799988 -50.9
3.469 3.458 6.9000015 -32.799988 -50.800003
3.479 3.468 6.9000015 -32.799988 -50.800003
3.489 3.478 6.9000015 -32.799988 -50.9
3.499 3.488 6.9000015 -32.799988 -50.9
3.513 3.498 7.0 -32.799988 -50.9
3.519 3.508 7.0 -32.799988 -50.9
3.529 3.518 7.0 -32.799988 -50.9
3.539 3.528 7.0 -32.799988 -50.9
3.549 3.538 7.0 -32.799988 -50.9
3.563 3.548 7.0 -32.799988 -50.9
3.570 3.558 7.0 -32.799988 -51.0
3.579 3.568 7.0 -32.799988 -51.0
3.589 3.578 7.0 -32.700012 -51.0
3.598 3.588 7.0 -32.700012 -51.0
3.608 3.598 7.0999985 -32.700012 -51.0
3.618 3.608 7.0999985 -32.700012 -51.0
3.628 3.618 7.0 -32.700012 -50.9
3.639 3.628 7.0 -32.700012 -50.9
3.649 3.638 7.0 -32.700012 -50.9
3.661 3.648 7.0 -32.700012 -50.9
3.669 3.658 7.0999985 -32.700012 -50.9
3.679 3.668 7.0999985 -32.700012 -50.9
3.689 3.678 7.0999985 -32.700012 -50.800003
3.698 3.688 7.0999985 -32.700012 -50.800003
3.708 3.698 7.200001 -32.700012 -50.800003
3.719 3.708 7.200001 -32.700012 -50.800003
3.729 3.718 7.299999 -32.799988 -50.6
3.739 3.728 7.299999 -32.799988 -50.6
3.749 3.738 7.6000004 -32.899994 -50.6
3.758 3.748 7.6000004 -32.899994 -50.6
3.769 3.758 7.8999996 -33.100006 -50.300003
3.779 3.768 7.8999996 -33.100006 -50.300003
3.789 3.778 12.136 -35.26999 -46.633003
3.799 3.788 12.136 -35.26999 -46.633003
3.813 3.798 16.463 -36.382996 -43.569
3.826 3.810 16.463 -36.382996 -43.569
3.829 3.819 19.458 -37.20401 -42.379005
3.838 3.828 19.458 -37.20401 -42.379005
3.848 3.838 21.663 -38.593994 -39.831
3.858 3.848 21.663 -38.593994 -39.831
3.868 3.858 24.605 -39.08499 -37.288002
3.879 3.868 24.605 -39.08499 -37.288002
3.888 3.878 25.124 -39.92801 -35.158005
3.898 3.888 25.124 -39.92801 -35.158005
3.908 3.898 26.769 -40.251007 -33.925003
3.917 3.908 26.769 -40.251007 -33.925003
3.928 3.918 27.049 -41.748016 -33.972
3.938 3.928 27.049 -41.748016 -33.972
3.948 3.938 26.673 -41.565002 -32.031
3.958 3.948 26.673 -41.565002 -32.031
3.968 3.958 26.603 -40.807007 -33.380005
3.977 3.968 26.603 -40.807007 -33.380005
3.988 3.978 25.951 -40.660004 -34.787003
3.999 3.988 25.951 -40.660004 -34.787003
4.008 3.998 27.111 -39.56201 -35.003
4.017 4.008 27.111 -39.56201 -35.003
4.027 4.018 25.35 -39.86801 -36.770004
4.038 4.028 25.35 -39.86801 -36.770004
4.047 4.038 24.042 -39.58499 -36.157005
4.057 4.048 24.042 -39.58499 -36.157005
4.068 4.058 21.474 -40.17099 -38.525
4.077 4.068 21.474 -40.17099 -38.525
4.088 4.078 18.973 -38.85199 -42.075005
4.097 4.088 18.973 -38.85199 -42.075005
4.107 4.098 15.336 -38.544006 -42.665
4.117 4.108 15.336 -38.544006 -42.665
4.127 4.118 13.062 -36.514008 -43.535004
4.138 4.128 13.062 -36.514008 -43.535004
4.148 4.138 9.810001 -35.34601 -47.339005
4.158 4.148 9.810001 -35.34601 -47.339005
4.167 4.158 5.841999 -35.097992 -45.596
4.177 4.168 5.841999 -35.097992 -45.596
4.188 4.178 4.84 -35.214996 -47.645004
4.197 4.188 4.84 -35.214996 -47.645004
4.207 4.198 3.4770012 -35.550995 -47.066
4.218 4.208 3.4770012 -35.550995 -47.066
4.228 4.218 2.663002 -35.10199 -46.78
4.238 4.228 2.663002 -35.10199 -46.78
4.247 4.238 2.0719986 -34.020996 -45.917
4.257 4.248 2.0719986 -34.020996 -45.917
4.267 4.258 1.0250015 -33.320007 -48.294
4.277 4.268 1.0250015 -33.320007 -48.294
4.287 4.278 1.7680016 -31.553009 -48.602005
4.298 4.288 1.7680016 -31.553009 -48.602005
4.308 4.298 2.5289993 -29.626007 -48.618004
4.318 4.308 2.5289993 -29.626007 -48.618004
4.328 4.318 1.6910019 -28.269012 -49.858
4.338 4.328 1.6910019 -28.269012 -49.858
4.348 4.338 3.5219994 -28.028992 -50.784004
4.358 4.348 3.5219994 -28.028992 -50.784004
4.368 4.358 2.6409988 -27.822998 -50.537003
4.378 4.368 2.6409988 -27.822998 -50.537003
4.388 4.378 1.2099991 -27.635986 -50.293
4.397 4.388 1.2099991 -27.635986 -50.293
4.408 4.398 1.137001 -28.084015 -50.03
4.418 4.408 1.137001 -28.084015 -50.03
4.427 4.418 -0.8310013 -29.507996 -50.377
4.437 4.428 -0.8310013 -29.507996 -50.377
4.447 4.438 -2.8129997 -29.024994 -49.506004
4.458 4.448 -2.8129997 -29.024994 -49.506004
4.468 4.458 -2.308998 -29.81601 -49.832
4.478 4.468 -2.308998 -29.81601 -49.832
4.488 4.478 -2.6170006 -30.136993 -49.848
4.498 4.488 -2.6170006 -30.136993 -49.848
4.508 4.498 -0.1590004 -30.886993 -51.35
4.517 4.508 -0.1590004 -30.886993 -51.35
4.528 4.518 2.4910011 -32.175995 -50.734
4.539 4.528 2.4910011 -32.175995 -50.734
4.547 4.538 3.7179985 -33.806 -48.33
4.558 4.548 3.7179985 -33.806 -48.33
4.568 4.558 6.147999 -34.20401 -50.398003
4.578 4.568 6.147999 -34.20401 -50.398003
4.588 4.578 9.265999 -33.063995 -50.657005
4.598 4.588 9.265999 -33.063995 -50.657005
4.608 4.598 11.139 -32.619995 -48.620003
4.618 4.608 11.139 -32.619995 -48.620003
4.628 4.618 14.569 -31.490997 -50.024002
4.638 4.628 14.569 -31.490997 -50.024002
4.648 4.638 16.715 -31.652985 -48.645004
4.658 4.648 16.715 -31.652985 -48.645004
4.668 4.658 19.018 -30.265991 -50.028
4.678 4.668 19.018 -30.265991 -50.028
4.691 4.678 19.811 -29.341003 -50.611
4.698 4.688 19.811 -29.341003 -50.611
4.708 4.698 21.82 -27.191986 -50.659004
4.718 4.708 21.82 -27.191986 -50.659004
4.728 4.718 22.525 -25.222992 -52.953003
4.738 4.728 22.525 -25.222992 -52.953003
4.749 4.738 23.697 -23.556 -53.038002
4.758 4.748 23.697 -23.556 -53.038002
4.768 4.758 24.737 -21.26001 -58.036003
4.777 4.768 24.737 -21.26001 -58.036003
4.787 4.778 26.51 -19.608002 -55.22
4.798 4.788 26.51 -19.608002 -55.22
4.808 4.798 27.377 -18.309998 -57.937004
4.818 4.808 27.377 -18.309998 -57.937004
4.828 4.818 26.0 -16.273987 -59.215004
4.839 4.828 26.0 -16.273987 -59.215004
4.848 4.838 24.788 -16.184998 -59.872
4.858 4.848 24.788 -16.184998 -59.872
4.868 4.858 22.255 -16.238007 -62.039
4.879 4.868 22.255 -16.238007 -62.039
4.890 4.878 19.011 -17.390991 -60.591003
4.899 4.888 19.011 -17.390991 -60.591003
4.909 4.898 15.337 -17.648987 -62.446
4.919 4.908 15.337 -17.648987 -62.446
4.929 4.918 14.249001 -18.300995 -61.879005
4.939 4.928 14.249001 -18.300995 -61.879005
4.948 4.938 12.395 -18.757996 -62.214005
4.959 4.948 12.395 -18.757996 -62.214005
4.969 4.958 10.501999 -20.208008 -61.939003
4.978 4.968 10.501999 -20.208008 -61.939003
4.988 4.978 9.149 -21.177002 -61.366005
4.999 4.988 9.149 -21.177002 -61.366005
5.008 4.998 5.8930016 -22.644989 -60.506004
5.019 5.008 5.8930016 -22.644989 -60.506004
5.030 5.018 6.515999 -21.075989 -57.033
5.038 5.028 6.515999 -21.075989 -57.033
5.048 5.038 4.6469994 -21.102997 -55.864002
5.062 5.048 4.6469994 -21.102997 -55.864002
5.072 5.058 2.2190018 -21.777008 -54.106
5.078 5.068 2.2190018 -21.777008 -54.106
5.088 5.078 -0.66999817 -21.143005 -54.138996
5.098 5.088 -0.66999817 -21.143005 -54.138996
5.108 5.098 -4.139 -21.270996 -55.063
5.118 5.108 -4.139 -21.270996 -55.063
5.128 5.118 -5.325001 -20.977997 -53.278996
5.137 5.128 -5.325001 -20.977997 -53.278996
5.148 5.138 -6.201 -19.378998 -52.091
5.158 5.148 -6.201 -19.378998 -52.091
5.168 5.158 -6.579998 -19.362 -51.483997
5.178 5.168 -6.579998 -19.362 -51.483997
5.188 5.178 -6.5719986 -18.455994 -54.179005
5.198 5.188 -6.5719986 -18.455994 -54.179005
5.208 5.198 -4.5 -16.859009 -52.367
5.218 5.208 -4.5 -16.859009 -52.367
5.228 5.218 -3.1559982 -15.016998 -53.261997
5.237 5.228 -3.1559982 -15.016998 -53.261997
5.249 5.238 -1.7939987 -12.722992 -53.860996
5.258 5.248 -1.7939987 -12.722992 -53.860996
5.272 5.258 -0.22399902 -11.898987 -52.954
5.279 5.268 -0.22399902 -11.898987 -52.954
5.289 5.278 0.5419998 -10.445007 -52.045002
5.299 5.288 0.5419998 -10.445007 -52.045002
5.309 5.298 -0.2649994 -10.25 -52.962
5.319 5.308 -0.2649994 -10.25 -52.962
5.329 5.318 -2.4819984 -9.63501 -51.780994
5.339 5.328 -2.4819984 -9.63501 -51.780994
5.349 5.338 -4.3930016 -10.42099 -52.095997
5.359 5.348 -4.3930016 -10.42099 -52.095997
5.369 5.358 -7.1809998 -10.787994 -50.31
5.379 5.368 -7.1809998 -10.787994 -50.31
5.389 5.378 -8.029999 -10.808014 -49.724003
5.399 5.388 -8.029999 -10.808014 -49.724003
5.409 5.398 -8.049 -11.144012 -49.739002
5.423 5.408 -8.049 -11.144012 -49.739002
5.429 5.418 -7.9850006 -11.742004 -52.129
5.439 5.428 -7.9850006 -11.742004 -52.129
5.449 5.438 -8.875 -12.325989 -48.923
5.459 5.448 -8.875 -12.325989 -48.923
5.469 5.458 -10.211002 -12.545013 -47.498005
5.479 5.468 -10.211002 -12.545013 -47.498005
5.489 5.478 -12.041 -12.416016 -47.241
5.499 5.488 -12.041 -12.416016 -47.241
5.509 5.498 -12.319 -11.808014 -47.228
5.519 5.508 -12.319 -11.808014 -47.228
5.529 5.518 -13.704998 -11.872009 -44.952
5.539 5.528 -13.704998 -11.872009 -44.952
5.549 5.538 -13.364002 -9.708984 -47.203
5.559 5.548 -13.364002 -9.708984 -47.203
5.573 5.558 -14.674 -8.998993 -45.782
5.579 5.568 -14.674 -8.998993 -45.782
5.590 5.578 -15.476002 -8.131012 -44.661
5.601 5.588 -15.476002 -8.131012 -44.661
5.609 5.598 -18.368 -9.015015 -42.388996
5.619 5.608 -18.368 -9.015015 -42.388996
5.629 5.618 -20.065998 -8.970001 -41.194996
5.640 5.628 -20.065998 -8.970001 -41.194996
5.649 5.638 -21.775997 -9.07901 -40.248005
5.659 5.648 -21.775997 -9.07901 -40.248005
5.669 5.658 -23.155003 -8.824005 -41.539997
5.679 5.668 -23.155003 -8.824005 -41.539997
5.689 5.678 -23.596996 -8.003998 -41.16
5.698 5.688 -23.596996 -8.003998 -41.16
5.714 5.700 -25.984997 -7.4140015 -37.028004
5.719 5.709 -25.984997 -7.4140015 -37.028004
5.729 5.719 -26.701 -7.7869873 -37.177998
5.738 5.728 -26.701 -7.7869873 -37.177998
5.756 5.738 -29.111996 -8.105988 -34.118
5.758 5.748 -29.111996 -8.105988 -34.118
5.768 5.758 -31.969997 -7.605011 -33.677
5.778 5.768 -31.969997 -7.605011 -33.677
5.788 5.778 -30.775997 -7.078003 -33.846
5.798 5.788 -30.775997 -7.078003 -33.846
5.808 5.798 -31.657001 -5.915985 -34.664
5.818 5.808 -31.657001 -5.915985 -34.664
5.828 5.818 -31.733997 -5.0820007 -34.907
5.838 5.828 -31.733997 -5.0820007 -34.907
5.848 5.838 -34.132 -6.61499 -30.367
5.858 5.848 -34.132 -6.61499 -30.367
5.869 5.858 -34.188 -5.950012 -30.915
5.878 5.868 -34.188 -5.950012 -30.915
5.888 5.878 -35.665005 -6.622986 -29.086002
5.899 5.888 -35.665005 -6.622986 -29.086002
5.909 5.898 -35.714 -6.302002 -29.051998
5.919 5.908 -35.714 -6.302002 -29.051998
5.929 5.918 -35.488003 -4.8659973 -28.714
5.938 5.928 -35.488003 -4.8659973 -28.714
5.948 5.938 -36.426 -5.553009 -26.292
5.958 5.948 -36.426 -5.553009 -26.292
5.968 5.958 -37.038998 -4.125 -25.337002
5.978 5.968 -37.038998 -4.125 -25.337002
5.988 5.978 -38.227 -4.950989 -23.800999
5.999 5.988 -38.227 -4.950989 -23.800999
6.009 5.998 -37.790997 -4.4970093 -22.246998
6.021 6.008 -37.790997 -4.4970093 -22.246998
6.029 6.018 -38.381 -4.350006 -21.324001
6.039 6.028 -38.381 -4.350006 -21.324001
6.049 6.038 -38.449 -4.2059937 -20.395
6.059 6.048 -38.449 -4.2059937 -20.395
6.069 6.058 -37.988995 -3.902008 -19.173
6.079 6.068 -37.988995 -3.902008 -19.173
6.089 6.078 -37.785 -4.2160034 -18.549
6.099 6.088 -37.785 -4.2160034 -18.549
6.109 6.098 -37.581005 -3.6029968 -17.339
6.118 6.108 -37.581005 -3.6029968 -17.339
6.129 6.118 -36.807995 -3.2739868 -17.311
6.138 6.128 -36.807995 -3.2739868 -17.311
6.148 6.138 -36.882 -3.9320068 -16.142002
6.158 6.148 -36.882 -3.9320068 -16.142002
6.168 6.158 -36.204998 -3.5280151 -13.4869995
6.178 6.168 -36.204998 -3.5280151 -13.4869995
6.188 6.178 -36.764996 -3.5239868 -13.504002
6.199 6.188 -36.764996 -3.5239868 -13.504002
6.209 6.198 -36.647 -5.2730103 -10.836002
6.218 6.208 -36.647 -5.2730103 -10.836002
6.229 6.218 -37.185 -5.255005 -11.3619995
6.239 6.228 -37.185 -5.255005 -11.3619995
6.248 6.238 -36.792004 -5.45401 -8.674999
6.258 6.248 -36.792004 -5.45401 -8.674999
6.268 6.258 -37.048 -6.041992 -9.806999
6.278 6.268 -37.048 -6.041992 -9.806999
6.288 6.278 -38.2 -6.4079895 -6.887001
6.298 6.288 -38.2 -6.4079895 -6.887001
6.309 6.298 -37.938 -6.2160034 -8.237999
6.319 6.308 -37.938 -6.2160034 -8.237999
6.329 6.318 -38.288998 -6.575012 -5.880001
6.339 6.328 -38.288998 -6.575012 -5.880001
6.349 6.338 -39.639004 -7.0650024 -4.903
6.359 6.348 -39.639004 -7.0650024 -4.903
6.369 6.358 -39.359997 -7.324005 -6.5369987
6.379 6.368 -39.359997 -7.324005 -6.5369987
6.389 6.378 -40.499004 -6.9460144 -3.2980003
6.403 6.388 -40.499004 -6.9460144 -3.2980003
6.408 6.398 -41.260998 -6.9299927 -3.8239994
6.419 6.408 -41.260998 -6.9299927 -3.8239994
6.428 6.418 -41.805996 -7.1069946 -2.9379997
6.438 6.428 -41.805996 -7.1069946 -2.9379997
6.448 6.438 -43.023 -7.5090027 -4.8619995
6.459 6.448 -43.023 -7.5090027 -4.8619995
6.468 6.458 -43.828 -7.5339966 -3.6970005
6.478 6.468 -43.828 -7.5339966 -3.6970005
6.489 6.478 -44.232998 -7.9150085 -6.170002
6.498 6.488 -44.232998 -7.9150085 -6.170002
6.509 6.498 -43.937 -8.744995 -7.251999
6.519 6.508 -43.937 -8.744995 -7.251999
6.528 6.518 -43.667004 -8.990997 -7.216999
6.538 6.528 -43.667004 -8.990997 -7.216999
6.550 6.538 -44.346004 -9.6839905 -7.4539986
6.558 6.548 -44.346004 -9.6839905 -7.4539986
6.568 6.558 -43.355 -11.983002 -9.208
6.578 6.568 -43.355 -11.983002 -9.208
6.589 6.578 -42.363003 -13.304993 -11.213001
6.599 6.588 -42.363003 -13.304993 -11.213001
6.609 6.598 -42.823 -15.954987 -12.963001
6.619 6.608 -42.823 -15.954987 -12.963001
6.629 6.618 -41.203 -18.070007 -15.055
6.639 6.628 -41.203 -18.070007 -15.055
6.649 6.638 -39.978 -22.140991 -19.004002
6.659 6.648 -39.978 -22.140991 -19.004002
6.669 6.658 -38.428005 -25.015015 -21.564
6.679 6.668 -38.428005 -25.015015 -21.564
6.689 6.678 -34.984005 -27.476013 -24.487
6.703 6.688 -34.984005 -27.476013 -24.487
6.711 6.698 -32.471004 -31.665009 -27.204998
6.718 6.708 -32.471004 -31.665009 -27.204998
6.728 6.718 -26.842999 -33.75299 -31.991001
6.738 6.728 -26.842999 -33.75299 -31.991001
6.748 6.738 -21.925 -35.947998 -36.545
6.758 6.748 -21.925 -35.947998 -36.545
6.768 6.758 -15.611 -35.29901 -39.534
6.778 6.768 -15.611 -35.29901 -39.534
6.788 6.778 -11.557999 -35.599 -40.635
6.798 6.788 -11.557999 -35.599 -40.635
6.808 6.798 -8.243 -34.806 -44.177998
6.818 6.808 -8.243 -34.806 -44.177998
6.828 6.818 -7.0130005 -34.554993 -44.289997
6.838 6.828 -7.0130005 -34.554993 -44.289997
6.849 6.838 -6.065998 -33.43399 -44.681004
6.858 6.848 -6.065998 -33.43399 -44.681004
6.868 6.858 -2.8580017 -31.105011 -45.972996
6.878 6.868 -2.8580017 -31.105011 -45.972996
6.888 6.878 -0.73799896 -28.237 -48.211002
6.899 6.888 -0.73799896 -28.237 -48.211002
6.908 6.898 2.434002 -25.733002 -48.55
6.918 6.908 2.434002 -25.733002 -48.55
6.929 6.918 4.4959984 -23.543 -49.513004
6.939 6.928 4.4959984 -23.543 -49.513004
6.949 6.938 5.6710014 -21.221008 -48.916004
6.960 6.948 5.6710014 -21.221008 -48.916004
6.969 6.958 7.1310005 -20.040009 -49.254
6.979 6.968 7.1310005 -20.040009 -49.254
6.989 6.978 8.911999 -17.178009 -50.2
6.999 6.988 8.911999 -17.178009 -50.2
7.009 6.998 9.2439995 -15.993988 -50.539005
7.019 7.008 9.2439995 -15.993988 -50.539005
7.029 7.018 10.66 -13.682007 -49.293003
7.039 7.028 10.66 -13.682007 -49.293003
7.049 7.038 10.667999 -13.032013 -48.685
7.059 7.048 10.667999 -13.032013 -48.685
7.069 7.058 11.215 -12.552002 -47.759
7.079 7.068 11.215 -12.552002 -47.759
7.089 7.078 11.267 -10.384003 -48.078
7.098 7.088 11.267 -10.384003 -48.078
7.109 7.098 11.831001 -9.233002 -47.149998
7.119 7.108 11.831001 -9.233002 -47.149998
7.129 7.118 11.532 -8.265991 -45.907
7.140 7.128 11.532 -8.265991 -45.907
7.149 7.138 12.1189995 -7.105011 -46.233006
7.159 7.148 12.1189995 -7.105011 -46.233006
7.169 7.158 11.887001 -5.5910034 -47.179005
7.179 7.168 11.887001 -5.5910034 -47.179005
7.189 7.178 12.452999 -4.791992 -46.875004
7.199 7.188 12.452999 -4.791992 -46.875004
7.209 7.198 13.026001 -4.625 -47.189
7.219 7.208 13.026001 -4.625 -47.189
7.229 7.218 11.861 -4.376007 -45.347004
7.239 7.228 11.861 -4.376007 -45.347004
7.249 7.238 10.868 -3.6679993 -48.461002
7.259 7.248 10.868 -3.6679993 -48.461002
7.269 7.258 10.246998 -2.6069946 -45.701
7.279 7.268 10.246998 -2.6069946 -45.701
7.290 7.278 8.778999 -4.3580017 -43.268
7.299 7.288 8.778999 -4.3580017 -43.268
7.308 7.298 8.606998 -4.1799927 -46.052
7.319 7.308 8.606998 -4.1799927 -46.052
7.329 7.318 8.041 -3.7659912 -44.552998
7.338 7.328 8.041 -3.7659912 -44.552998
7.351 7.338 7.5 -3.8250122 -43.976
7.358 7.348 7.5 -3.8250122 -43.976
7.369 7.358 7.2859993 -3.1940002 -44.605
7.378 7.368 7.2859993 -3.1940002 -44.605
7.389 7.378 7.5530014 -3.248993 -43.438
7.399 7.388 7.5530014 -3.248993 -43.438
7.409 7.398 8.143002 -4.0169983 -44.940998
7.419 7.408 8.143002 -4.0169983 -44.940998
7.433 7.418 8.373001 -4.567993 -42.931004
7.439 7.428 8.373001 -4.567993 -42.931004
7.448 7.438 9.694 -4.1419983 -42.709003
7.459 7.448 9.694 -4.1419983 -42.709003
7.469 7.458 8.170002 -5.720001 -41.707005
7.479 7.468 8.170002 -5.720001 -41.707005
7.489 7.478 8.4939995 -6.5620117 -42.373997
7.500 7.488 8.4939995 -6.5620117 -42.373997
7.509 7.498 4.5369987 -8.184998 -45.452
7.519 7.508 4.5369987 -8.184998 -45.452
7.530 7.518 5.4160004 -8.196991 -45.188
7.539 7.528 5.4160004 -8.196991 -45.188
7.549 7.538 5.1469994 -8.075989 -44.256
7.559 7.548 5.1469994 -8.075989 -44.256
7.569 7.558 4.5250015 -8.010986 -44.503002
7.582 7.568 4.5250015 -8.010986 -44.503002
7.588 7.578 4.633999 -8.566986 -44.48
7.599 7.588 4.633999 -8.566986 -44.48
7.609 7.598 5.4490013 -8.829987 -44.042995
7.619 7.608 5.4490013 -8.829987 -44.042995
7.629 7.618 4.7980003 -10.325989 -44.374996
7.640 7.628 4.7980003 -10.325989 -44.374996
7.649 7.638 4.736 -12.39801 -43.654995
7.658 7.648 4.736 -12.39801 -43.654995
7.669 7.658 4.890999 -15.466003 -41.469997
7.679 7.668 4.890999 -15.466003 -41.469997
7.689 7.678 5.007 -19.125 -41.652996
7.699 7.688 5.007 -19.125 -41.652996
7.710 7.698 5.2789993 -23.17099 -37.463
7.719 7.708 5.2789993 -23.17099 -37.463
7.731 7.718 4.3429985 -26.906006 -36.267
7.738 7.728 4.3429985 -26.906006 -36.267
7.753 7.738 4.3009987 -30.993011 -32.216
7.759 7.748 4.3009987 -30.993011 -32.216
7.768 7.758 2.2649994 -34.661987 -29.86
7.778 7.768 2.2649994 -34.661987 -29.86
7.788 7.778 1.026001 -36.619995 -27.554
7.799 7.788 1.026001 -36.619995 -27.554
7.808 7.798 -0.5060005 -39.29599 -24.952
7.818 7.808 -0.5060005 -39.29599 -24.952
7.828 7.818 -2.1090012 -41.652985 -20.519001
7.838 7.828 -2.1090012 -41.652985 -20.519001
7.848 7.838 -4.139 -42.730988 -18.856998
7.858 7.848 -4.139 -42.730988 -18.856998
7.869 7.858 -6.811001 -44.656006 -15.056999
7.879 7.868 -6.811001 -44.656006 -15.056999
7.889 7.878 -9.524002 -45.277985 -10.004002
7.899 7.888 -9.524002 -45.277985 -10.004002
7.909 7.898 -12.225998 -45.367004 -5.2560005
7.919 7.908 -12.225998 -45.367004 -5.2560005
7.929 7.918 -16.325 -46.101013 -0.5209999
7.939 7.928 -16.325 -46.101013 -0.5209999
7.949 7.938 -18.446999 -44.134003 4.2460003
7.959 7.948 -18.446999 -44.134003 4.2460003
7.969 7.958 -22.114998 -43.052002 4.618
7.979 7.968 -22.114998 -43.052002 4.618
7.989 7.978 -25.153 -40.450012 11.847
7.999 7.988 -25.153 -40.450012 11.847
8.009 7.998 -28.245003 -38.5 11.899
8.019 8.008 -28.245003 -38.5 11.899
8.029 8.018 -31.007004 -36.993988 10.373
8.039 8.028 -31.007004 -36.993988 10.373
8.049 8.038 -32.637 -35.461 8.207
8.059 8.048 -32.637 -35.461 8.207
8.069 8.058 -35.403 -34.28 6.6569996
8.079 8.068 -35.403 -34.28 6.6569996
8.089 8.078 -37.989 -33.837006 8.227
8.099 8.088 -37.989 -33.837006 8.227
8.109 8.098 -38.156 -31.919006 4.809
8.119 8.108 -38.156 -31.919006 4.809
8.129 8.118 -39.979004 -31.819 -0.19799995
8.139 8.128 -39.979004 -31.819 -0.19799995
8.149 8.138 -39.365997 -31.285004 -1.7469997
8.159 8.148 -39.365997 -31.285004 -1.7469997
8.169 8.158 -38.709 -30.553009 -4.859001
8.179 8.168 -38.709 -30.553009 -4.859001
8.189 8.178 -40.065002 -30.208008 -6.111
8.199 8.188 -40.065002 -30.208008 -6.111
8.209 8.198 -40.265 -28.50299 -7.976
8.221 8.208 -40.265 -28.50299 -7.976
8.231 8.218 -40.481995 -27.312988 -9.519001
8.239 8.228 -40.481995 -27.312988 -9.519001
8.249 8.238 -41.486 -26.755005 -12.939999
8.259 8.248 -41.486 -26.755005 -12.939999
8.269 8.258 -41.36 -25.18399 -16.356998
8.278 8.268 -41.36 -25.18399 -16.356998
8.289 8.278 -40.418 -24.459991 -19.43
8.299 8.288 -40.418 -24.459991 -19.43
8.309 8.298 -39.766 -22.753998 -21.89
8.319 8.308 -39.766 -22.753998 -21.89
8.329 8.318 -39.917 -20.674011 -25.593998
8.339 8.328 -39.917 -20.674011 -25.593998
8.349 8.338 -40.444 -18.345001 -26.203999
8.359 8.348 -40.444 -18.345001 -26.203999
8.369 8.358 -39.242004 -18.085999 -29.588001
8.379 8.368 -39.242004 -18.085999 -29.588001
8.389 8.378 -38.912994 -18.354004 -32.058
8.399 8.388 -38.912994 -18.354004 -32.058
8.409 8.398 -38.39 -17.365997 -31.426998
8.420 8.408 -38.39 -17.365997 -31.426998
8.429 8.418 -39.999 -17.787994 -34.24
8.439 8.428 -39.999 -17.787994 -34.24
8.449 8.438 -39.175003 -16.440002 -34.24
8.459 8.448 -39.175003 -16.440002 -34.24
8.469 8.458 -40.039 -17.585999 -34.564
8.478 8.468 -40.039 -17.585999 -34.564
8.489 8.478 -41.372 -18.315002 -37.381
8.499 8.488 -41.372 -18.315002 -37.381
8.509 8.498 -41.043 -19.065002 -40.199
8.519 8.508 -41.043 -19.065002 -40.199
8.529 8.518 -43.763 -20.628998 -43.350002
8.538 8.528 -43.763 -20.628998 -43.350002
8.548 8.538 -44.821 -21.549988 -45.874996
8.558 8.548 -44.821 -21.549988 -45.874996
8.568 8.558 -45.505005 -22.21701 -51.827
8.579 8.568 -45.505005 -22.21701 -51.827
8.588 8.578 -45.072998 -23.230011 -57.788998
8.616 8.590 -45.072998 -23.230011 -57.788998
8.616 8.608 -43.606003 -24.296997 -61.258
8.618 8.618 -43.606003 -24.296997 -61.258
8.628 8.628 -42.127 -24.699005 -64.73201
8.638 8.638 -42.127 -24.699005 -64.73201
8.648 8.648 -39.572998 -25.125 -66.95201
8.658 8.658 -39.572998 -25.125 -66.95201
8.668 8.668 -36.147003 -25.541992 -69.798004
8.678 8.678 -36.147003 -25.541992 -69.798004
8.688 8.688 -30.862999 -25.350006 -69.49501
8.699 8.698 -30.862999 -25.350006 -69.49501
8.708 8.708 -24.006 -26.209991 -66.69
8.718 8.718 -24.006 -26.209991 -66.69
8.728 8.728 -19.628998 -26.42099 -63.900997
8.738 8.738 -19.628998 -26.42099 -63.900997
8.752 8.749 -14.439999 -27.291992 -61.098995
8.759 8.758 -14.439999 -27.291992 -61.098995
8.768 8.768 -2.9389992 -29.53601 -40.202003
8.778 8.778 -2.9389992 -29.53601 -40.202003
8.788 8.788 0.64099884 -31.394989 -38.644005
8.798 8.798 0.64099884 -31.394989 -38.644005
8.808 8.808 2.2070007 -31.666016 -33.987
8.818 8.818 2.2070007 -31.666016 -33.987
8.828 8.828 4.7509995 -32.657013 -33.976006
8.837 8.838 4.7509995 -32.657013 -33.976006
8.847 8.848 8.098 -33.533997 -32.396004
8.857 8.858 8.098 -33.533997 -32.396004
8.867 8.868 9.149002 -34.466003 -28.335999
8.877 8.878 9.149002 -34.466003 -28.335999
8.888 8.888 11.738998 -35.13199 -28.924995
8.897 8.898 11.738998 -35.13199 -28.924995
8.909 8.908 11.767998 -35.830017 -28.293
8.919 8.918 11.767998 -35.830017 -28.293
8.929 8.928 14.265999 -36.231995 -25.762001
8.940 8.938 14.265999 -36.231995 -25.762001
8.949 8.948 14.304001 -35.75299 -25.432
8.959 8.958 14.304001 -35.75299 -25.432
8.969 8.968 15.188 -35.756012 -25.419998
8.979 8.978 15.188 -35.756012 -25.419998
8.988 8.988 15.771 -34.94699 -24.457
8.998 8.998 15.771 -34.94699 -24.457
9.009 9.008 17.478 -34.13501 -23.496002
9.018 9.018 17.478 -34.13501 -23.496002
9.028 9.028 16.993 -33.45099 -24.743996
9.038 9.038 16.993 -33.45099 -24.743996
9.048 9.048 17.335 -31.764008 -25.36
9.058 9.058 17.335 -31.764008 -25.36
9.068 9.068 19.991 -30.027008 -27.850998
9.078 9.078 19.991 -30.027008 -27.850998
9.088 9.088 19.725 -27.37799 -26.590004
9.098 9.098 19.725 -27.37799 -26.590004
9.107 9.108 20.675 -25.321991 -28.457
9.119 9.118 20.675 -25.321991 -28.457
9.129 9.128 21.286 -22.641998 -28.455002
9.139 9.138 21.286 -22.641998 -28.455002
9.149 9.148 21.111 -20.260986 -30.333
9.159 9.158 21.111 -20.260986 -30.333
9.169 9.168 20.608 -17.911987 -30.963997
9.179 9.178 20.608 -17.911987 -30.963997
9.189 9.188 20.693 -16.191986 -32.836998
9.198 9.198 20.693 -16.191986 -32.836998
9.210 9.208 19.346 -14.539001 -33.463997
9.219 9.218 19.346 -14.539001 -33.463997
9.229 9.228 18.816 -13.053986 -33.769997
9.239 9.238 18.816 -13.053986 -33.769997
9.249 9.248 18.033 -11.899994 -34.700996
9.258 9.258 18.033 -11.899994 -34.700996
9.269 9.268 17.208 -11.458008 -34.989998
9.279 9.278 17.208 -11.458008 -34.989998
9.289 9.288 16.393 -10.072998 -34.655
9.299 9.298 16.393 -10.072998 -34.655
9.309 9.308 16.449 -9.506012 -35.831
9.319 9.318 16.449 -9.506012 -35.831
9.329 9.328 15.159 -8.984009 -36.965004
9.339 9.338 15.159 -8.984009 -36.965004
9.349 9.348 13.313999 -8.873993 -36.260002
9.360 9.358 13.313999 -8.873993 -36.260002
9.368 9.368 13.083 -8.845001 -36.256996
9.378 9.378 13.083 -8.845001 -36.256996
9.388 9.388 12.058998 -9.416992 -37.442
9.398 9.398 12.058998 -9.416992 -37.442
9.408 9.408 10.970001 -11.304993 -36.864
9.418 9.418 10.970001 -11.304993 -36.864
9.428 9.428 10.168999 -11.436005 -36.577995
9.438 9.438 10.168999 -11.436005 -36.577995
9.449 9.448 9.360001 -12.194 -36.297997
9.459 9.458 9.360001 -12.194 -36.297997
9.469 9.468 8.517998 -13.61499 -35.413002
9.479 9.478 8.517998 -13.61499 -35.413002
9.489 9.488 7.3759995 -14.743011 -33.359
9.498 9.498 7.3759995 -14.743011 -33.359
9.509 9.508 5.758999 -16.464996 -33.077995
9.519 9.518 5.758999 -16.464996 -33.077995
9.529 9.528 5.9710007 -16.016998 -30.428001
9.539 9.538 5.9710007 -16.016998 -30.428001
9.549 9.548 6.4939995 -16.761993 -30.153
9.559 9.558 6.4939995 -16.761993 -30.153
9.568 9.568 5.913002 -17.097992 -27.842003
9.578 9.578 5.913002 -17.097992 -27.842003
9.588 9.588 6.9160004 -18.325989 -26.125
9.598 9.598 6.9160004 -18.325989 -26.125
9.608 9.608 7.697998 -18.726013 -25.898003
9.618 9.618 7.697998 -18.726013 -25.898003
9.629 9.628 9.177002 -18.544006 -23.376999
9.639 9.638 9.177002 -18.544006 -23.376999
9.649 9.648 9.960999 -18.765015 -24.006996
9.660 9.658 9.960999 -18.765015 -24.006996
9.668 9.668 9.618 -19.493988 -22.071999
9.679 9.678 9.618 -19.493988 -22.071999
9.689 9.688 10.609001 -19.716003 -22.649002
9.699 9.698 10.609001 -19.716003 -22.649002
9.710 9.708 10.538002 -20.009003 -22.090996
9.719 9.718 10.538002 -20.009003 -22.090996
9.728 9.728 10.488998 -21.174011 -22.620003
9.740 9.738 10.488998 -21.174011 -22.620003
9.748 9.748 8.952 -22.528992 -23.406998
9.758 9.758 8.952 -22.528992 -23.406998
9.768 9.768 8.313999 -23.700989 -21.357002
9.778 9.778 8.313999 -23.700989 -21.357002
9.788 9.788 9.306999 -24.174988 -22.684998
9.798 9.798 9.306999 -24.174988 -22.684998
9.808 9.808 8.972 -24.740997 -21.77
9.818 9.818 8.972 -24.740997 -21.77
9.828 9.828 8.6380005 -26.67099 -21.111
9.838 9.838 8.6380005 -26.67099 -21.111
9.848 9.848 7.8079987 -27.695984 -21.026001
9.858 9.858 7.8079987 -27.695984 -21.026001
9.868 9.868 8.007999 -28.416992 -20.382
9.878 9.878 8.007999 -28.416992 -20.382
9.888 9.888 9.534 -28.645996 -20.594002
9.898 9.898 9.534 -28.645996 -20.594002
9.908 9.908 9.757999 -28.246002 -20.265999
9.918 9.918 9.757999 -28.246002 -20.265999
9.928 9.928 10.761002 -27.816986 -19.946
9.938 9.938 10.761002 -27.816986 -19.946
9.948 9.948 11.258999 -28.131989 -20.483002
9.958 9.958 11.258999 -28.131989 -20.483002
9.969 9.968 11.021 -27.503998 -21.595001
9.979 9.978 11.021 -27.503998 -21.595001
9.989 9.988 11.242001 -27.497986 -21.571999
9.999 9.998 11.242001 -27.497986 -21.571999
10.008 10.008 11.707001 -26.436005 -21.821
10.019 10.018 11.707001 -26.436005 -21.821
10.029 10.028 11.922001 -26.690002 -22.865997
10.038 10.038 11.922001 -26.690002 -22.865997
10.048 10.048 11.843002 -26.391998 -22.280998
10.058 10.058 11.843002 -26.391998 -22.280998
10.068 10.068 12.028 -25.533997 -23.721
10.078 10.078 12.028 -25.533997 -23.721
10.089 10.088 11.468002 -25.425995 -21.959
10.098 10.098 11.468002 -25.425995 -21.959
10.108 10.108 10.41 -25.656006 -22.771004
10.119 10.118 10.41 -25.656006 -22.771004
10.129 10.128 10.971001 -25.307007 -23.256004
10.139 10.138 10.971001 -25.307007 -23.256004
10.149 10.148 9.738998 -25.24701 -23.209
10.159 10.158 9.738998 -25.24701 -23.209
10.169 10.168 10.417999 -24.609985 -23.581001
10.179 10.178 10.417999 -24.609985 -23.581001
10.189 10.188 9.916 -24.929016 -23.062996
10.199 10.198 9.916 -24.929016 -23.062996
10.208 10.208 9.271 -25.156006 -23.001
10.218 10.218 9.271 -25.156006 -23.001
10.229 10.228 9.742001 -25.096008 -23.118004
10.240 10.238 9.742001 -25.096008 -23.118004
10.249 10.248 9.285 -25.326996 -23.174004
10.259 10.258 9.285 -25.326996 -23.174004
10.269 10.268 9.41 -25.476013 -23.325005
10.279 10.278 9.41 -25.476013 -23.325005
10.289 10.288 9.560001 -24.842987 -24.275002
10.299 10.298 9.560001 -24.842987 -24.275002
10.309 10.308 9.502998 -23.820007 -25.041
10.319 10.318 9.502998 -23.820007 -25.041
10.329 10.328 10.959999 -21.501007 -26.264
10.339 10.338 10.959999 -21.501007 -26.264
10.349 10.348 11.425999 -19.63501 -26.810997
10.359 10.358 11.425999 -19.63501 -26.810997
10.369 10.368 11.877998 -17.450012 -28.521996
10.379 10.378 11.877998 -17.450012 -28.521996
10.389 10.388 12.211998 -17.294006 -28.495003
10.399 10.398 12.211998 -17.294006 -28.495003
10.409 10.408 11.435001 -17.450012 -28.273003
10.420 10.418 11.435001 -17.450012 -28.273003
10.429 10.428 11.709999 -17.470001 -28.427002
10.439 10.438 11.709999 -17.470001 -28.427002
10.449 10.448 12.204002 -16.890991 -28.787003
10.459 10.458 12.204002 -16.890991 -28.787003
10.473 10.468 10.692001 -17.156006 -29.146004
10.479 10.478 10.692001 -17.156006 -29.146004
10.489 10.488 10.043999 -17.024994 -29.741997
10.499 10.498 10.043999 -17.024994 -29.741997
10.509 10.508 9.807999 -17.888 -29.545998
10.518 10.518 9.807999 -17.888 -29.545998
10.529 10.528 9.997002 -18.786987 -28.853996
10.539 10.538 9.997002 -18.786987 -28.853996
10.549 10.548 8.909 -19.664001 -28.651001
10.559 10.558 8.909 -19.664001 -28.651001
10.569 10.568 6.7249985 -20.535004 -27.047005
10.579 10.578 6.7249985 -20.535004 -27.047005
10.589 10.588 6.2820015 -21.115997 -26.871002
10.599 10.598 6.2820015 -21.115997 -26.871002
10.609 10.608 6.5289993 -21.035004 -27.834
10.622 10.618 6.5289993 -21.035004 -27.834
10.629 10.628 5.9230003 -20.712006 -28.774002
10.638 10.638 5.9230003 -20.712006 -28.774002
10.649 10.648 6.3380013 -20.878998 -28.825005
10.660 10.658 6.3380013 -20.878998 -28.825005
10.669 10.668 6.097 -21.028015 -28.876999
10.679 10.678 6.097 -21.028015 -28.876999
10.689 10.688 5.132 -21.20401 -28.927002
10.700 10.698 5.132 -21.20401 -28.927002
10.711 10.708 5.345001 -20.988007 -29.620003
10.719 10.718 5.345001 -20.988007 -29.620003
10.731 10.729 5.2630005 -21.911987 -29.031998
10.738 10.738 5.2630005 -21.911987 -29.031998
10.748 10.748 4.6500015 -21.95401 -29.708
10.759 10.758 4.6500015 -21.95401 -29.708
10.773 10.768 4.1189995 -22.424988 -29.391998
10.778 10.778 4.1189995 -22.424988 -29.391998
10.788 10.788 4.0219994 -22.654999 -29.873001
10.798 10.798 4.0219994 -22.654999 -29.873001
10.808 10.808 3.526001 -23.037994 -30.131996
10.818 10.818 3.526001 -23.037994 -30.131996
10.828 10.828 3.3400002 -23.360992 -29.799004
10.838 10.838 3.3400002 -23.360992 -29.799004
10.848 10.848 3.4169998 -23.411987 -30.265
10.858 10.858 3.4169998 -23.411987 -30.265
10.868 10.868 3.7249985 -22.971985 -30.335
10.878 10.878 3.7249985 -22.971985 -30.335
10.888 10.888 3.422001 -23.514008 -31.263
10.898 10.898 3.422001 -23.514008 -31.263
10.908 10.908 3.9160004 -23.513 -31.083
10.919 10.918 3.9160004 -23.513 -31.083
10.929 10.928 3.822998 -23.572998 -30.636002
10.939 10.938 3.822998 -23.572998 -30.636002
10.950 10.948 3.1599998 -23.862 -30.663002
10.959 10.958 3.1599998 -23.862 -30.663002
10.969 10.968 4.1469994 -23.27301 -31.68
10.978 10.978 4.1469994 -23.27301 -31.68
10.988 10.988 3.2659988 -24.22699 -29.588997
10.998 10.998 3.2659988 -24.22699 -29.588997
11.008 11.008 3.2750015 -24.067993 -30.984001
11.018 11.018 3.2750015 -24.067993 -30.984001
11.028 11.028 3.2509995 -24.063995 -30.909004
11.038 11.038 3.2509995 -24.063995 -30.909004
11.048 11.048 3.2229996 -23.674011 -30.666
11.058 11.058 3.2229996 -23.674011 -30.666
11.068 11.068 2.9819984 -23.668 -30.672005
11.078 11.078 2.9819984 -23.668 -30.672005
11.087 11.088 3.2050018 -23.833008 -29.935997
11.100 11.098 3.2050018 -23.833008 -29.935997
11.109 11.108 3.1679993 -23.528992 -30.131004
11.119 11.118 3.1679993 -23.528992 -30.131004
11.129 11.128 3.0 -23.700012 -30.099998
11.139 11.138 3.0 -23.700012 -30.099998
11.149 11.148 2.9000015 -23.899994 -30.099998
11.159 11.158 2.9000015 -23.899994 -30.099998
11.169 11.168 2.7999992 -24.200012 -30.299995
11.178 11.178 2.7999992 -24.200012 -30.299995
11.189 11.188 2.7999992 -24.299988 -30.400002
11.199 11.198 2.7999992 -24.299988 -30.400002
11.209 11.208 2.7000008 -24.5 -30.5
11.220 11.218 2.7000008 -24.5 -30.5
11.229 11.228 2.7000008 -24.700012 -30.5
11.239 11.238 2.7000008 -24.700012 -30.5
11.249 11.248 2.7000008 -24.899994 -30.599998
11.259 11.258 2.7000008 -24.899994 -30.599998
11.269 11.268 2.7000008 -25.0 -30.599998
11.279 11.278 2.7000008 -25.0 -30.599998
11.289 11.288 2.7000008 -25.200012 -30.700005
11.298 11.298 2.7000008 -25.200012 -30.700005
11.309 11.308 2.7999992 -25.399994 -30.700005
11.319 11.318 2.7999992 -25.399994 -30.700005
11.329 11.328 2.7999992 -25.5 -30.799995
11.339 11.338 2.7999992 -25.5 -30.799995
11.350 11.348 2.7999992 -25.600006 -30.799995
11.359 11.358 2.7999992 -25.600006 -30.799995
11.369 11.368 2.9000015 -25.700012 -30.799995
11.378 11.378 2.9000015 -25.700012 -30.799995
11.389 11.388 3.0 -25.799988 -30.799995
11.399 11.398 3.0 -25.799988 -30.799995
11.409 11.408 3.0999985 -25.899994 -30.799995
11.419 11.418 3.0999985 -25.899994 -30.799995
11.429 11.428 3.2999992 -26.0 -30.799995
11.440 11.438 3.2999992 -26.0 -30.799995
11.449 11.448 3.4000015 -26.0 -30.799995
11.459 11.458 3.4000015 -26.0 -30.799995
11.469 11.468 3.5 -26.100006 -30.900002
11.479 11.478 3.5 -26.100006 -30.900002
11.488 11.488 3.5999985 -26.100006 -30.900002
11.498 11.498 3.5999985 -26.100006 -30.900002
11.508 11.508 3.7000008 -26.200012 -30.799995
11.518 11.518 3.7000008 -26.200012 -30.799995
11.527 11.528 3.7999992 -26.200012 -30.799995
11.538 11.538 3.7999992 -26.200012 -30.799995
11.548 11.548 3.9000015 -26.200012 -30.799995
